#
# This file contains the minimum required by DCamProf to import spectra
#
# If not spectral scaling is defined (SPEC_SCALE), 1.0 is assumed,
# unless it's a Argyll CTI3 file which has scaling 100
#
# It does not hurt if the data format has additional columns, those
# that DCamProf does not understand will be ignored.

SPEC_SCALE 100

BEGIN_DATA_FORMAT
SPEC_380 SPEC_385 SPEC_390 SPEC_395 SPEC_400 SPEC_405 SPEC_410 SPEC_415 SPEC_420 SPEC_425 SPEC_430 SPEC_435 SPEC_440 SPEC_445 SPEC_450 SPEC_455 SPEC_460 SPEC_465 SPEC_470 SPEC_475 SPEC_480 SPEC_485 SPEC_490 SPEC_495 SPEC_500 SPEC_505 SPEC_510 SPEC_515 SPEC_520 SPEC_525 SPEC_530 SPEC_535 SPEC_540 SPEC_545 SPEC_550 SPEC_555 SPEC_560 SPEC_565 SPEC_570 SPEC_575 SPEC_580 SPEC_585 SPEC_590 SPEC_595 SPEC_600 SPEC_605 SPEC_610 SPEC_615 SPEC_620 SPEC_625 SPEC_630 SPEC_635 SPEC_640 SPEC_645 SPEC_650 SPEC_655 SPEC_660 SPEC_665 SPEC_670 SPEC_675 SPEC_680 SPEC_685 SPEC_690 SPEC_695 SPEC_700 SPEC_705 SPEC_710 SPEC_715 SPEC_720 SPEC_725 SPEC_730
END_DATA_FORMAT

BEGIN_DATA
5.47500 5.65400 5.83300 5.97450 6.11600 6.17700 6.23800 6.23450 6.23100 6.21900 6.20700 6.19500 6.18300 6.17100 6.15900 6.15650 6.15400 6.15800 6.16200 6.18250 6.20300 6.24950 6.29600 6.40700 6.51800 6.77250 7.02700 7.33350 7.64000 7.79450 7.94900 8.03850 8.12800 8.27850 8.42900 8.74350 9.05800 9.67400 10.2900 11.0975 11.9050 12.6655 13.4260 13.8730 14.3200 14.5040 14.6880 14.8825 15.0770 15.4435 15.8100 16.3145 16.8190 17.3545 17.8900 18.3225 18.7550 18.8595 18.9640 18.7705 18.5770 18.3630 18.1490 18.1550 18.1610 18.4410 18.7210 19.1630 19.6050 20.2770 20.9490
11.7130 13.0290 14.3450 15.8990 17.4530 18.2730 19.0930 19.3265 19.5600 19.7300 19.9000 20.1615 20.4230 20.8705 21.3180 22.0800 22.8420 23.9845 25.1270 26.5660 28.0050 29.4415 30.8780 31.9115 32.9450 33.1405 33.3360 32.3980 31.4600 30.0440 28.6280 27.9885 27.3490 27.4975 27.6460 27.6830 27.7200 28.3250 28.9300 31.4340 33.9380 37.9800 42.0220 45.4005 48.7790 50.6450 52.5110 53.5425 54.5740 55.3650 56.1560 56.9720 57.7880 58.6425 59.4970 60.3385 61.1800 61.8275 62.4750 63.1425 63.8100 64.7030 65.5960 66.7090 67.8220 68.8900 69.9580 70.8335 71.7090 72.5455 73.3820
END_DATA
